File: examples/mos2-example2/ref/raman_spectra1.dat
#Raman spectra
#Laser energy   1.95 eV
#Raman shift (cm-1), Raman Spectra (XX,YY,ZZ,s+s+,s-s-,XY,YX,s+s-,s-s+,nonpol)
   350.0000  94.7491  94.2717  56.8019  63.4113  63.4113  19.4285  19.6432  50.4035  50.8665  70.5682
   351.2531  98.8995  98.4428  59.5818  66.515  66.5145  20.5229  20.7587  52.5672  53.0272  73.7247
   352.5063  103.431  102.996  62.5708  69.8522  69.8512  21.7589  22.0185  55.022  55.479  77.1662
   353.7594  108.392  107.982  65.7905  73.447  73.4453  23.1609  23.4472  57.8179  58.2721  80.9251
   355.0125  113.842  113.459  69.2651  77.3265  77.3241  24.7589  25.0755  61.0166  61.468  85.0393
   356.2657  119.85  119.496  73.0223  81.5217  81.5184  26.5898  26.9411  64.694  65.1427  89.5533
   357.5188  126.499  126.178  77.0936  86.0677  86.0634  28.7001  29.0911  68.9452  69.3914  94.5199
   358.7719  133.89  133.605  81.515  91.0048  90.9992  31.1479  31.5849  73.8901  74.3338  100.002
   360.0251  142.146  141.903  86.3277  96.3791  96.3719  34.0078  34.4982  79.6817  80.1229  106.075
   361.2782  151.422  151.226  91.5795  102.244  102.235  37.3757  37.9289  86.5174  86.9565  112.831
   362.5313  161.909  161.767  97.3253  108.661  108.649  41.3773  42.005  94.6562  95.0932  120.383
   363.7845  173.855  173.776  103.629  115.701  115.687  46.1799  46.8967  104.442  104.877  128.873
   365.0376  187.577  187.573  110.565  123.448  123.43  52.0094  52.8342  116.341  116.774  138.481
   366.2907  203.502  203.586  118.222  132  131.978  59.1772  60.1345  130.994  131.426  149.437
   367.5439  222.203  222.396  126.701  141.473  141.445  68.1221  69.2445  149.308  149.739  162.049
   368.7970  244.485  244.812  136.126  152.004  151.968  79.4773  80.8092  172.59  173.02  176.731
   370.0501  271.501  271.998  146.643  163.757  163.711  94.1845  95.7874  202.787  203.217  194.066
   371.3033  304.976  305.694  158.427  176.928  176.869  113.691  115.653  242.893  243.324  214.899
   372.5564  347.598  348.612  171.69  191.758  191.679  140.31  142.761  297.706  298.138  240.51
   373.8095  403.777  405.202  186.691  208.538  208.431  177.92  181.064  375.281  375.714  272.949
   375.0627  481.219  483.244  203.747  227.63  227.481  233.411  237.575  489.951  490.386  315.717
   376.3158  594.45  597.399  223.253  249.489  249.274  319.913  325.665  669.114  669.55  375.267
   377.5689  773.541  778.026  245.706  274.697  274.368  464.765  473.179  970.008  970.437  464.715
   378.8221  1088.37  1095.68  271.743  304.029  303.489  731.537  744.85  1526.26  1526.66  614.026
   380.0752  1724.19  1737.39  302.197  338.591  337.604  1288.23  1311.77  2692.55  2692.84  901.545
   381.3283  3204.82  3232.09  338.226  380.164  378.108  2613.15  2661.02  5476.44  5476.37  1549.08
   382.5815  6050.15  6104.66  381.33  431.026  426.805  5308.16  5405.52  11005  11005.6  2835.78
   383.8346  5578.36  5627.82  432.116  487.488  483.452  5143.08  5237.45  10305.7  10310  2810.89
   385.0877  2996.86  3020.67  493.132  552.892  550.988  2495.03  2540.75  4973.41  4976.02  1650.96
   386.3409  1866.16  1878.29  568.781  636.052  635.16  1240.07  1262.74  2487.34  2488.71  1148.44
   387.5940  1454.73  1461.98  663.606  741.345  740.893  709.627  722.548  1432.89  1433.76  999.51
   388.8471  1337.2  1342.19  784.338  875.829  875.602  453.285  461.497  921.042  921.696  1003.2
   390.1003  1373.28  1377.17  941.168  1050.72  1050.63  313.164  318.801  640.265  640.808  1096.98
   391.3534  1522.3  1525.7  1149.9  1283.59  1283.6  229.063  233.156  471.279  471.756  1269.04
   392.6065  1787.18  1790.5  1435.97  1602.81  1602.92  174.903  178  362.211  362.645  1533.06
   393.8596  2203.51  2207.1  1842.4  2056.38  2056.58  138.086  140.508  287.927  288.328  1926.69
   395.1128  2850.74  2855.01  2446.29  2730.32  2730.65  111.979  113.921  235.152  235.525  2524.76
   396.3659  3891.04  3896.57  3396.35  3790.64  3791.14  92.8397  94.4282  196.38  196.722  3475.82
   397.6190  5672.75  5680.62  5006.91  5588.11  5588.89  78.4475  79.7691  167.136  167.438  5096.42
   398.8722  9024.58  9036.97  8022.19  8953.35  8954.64  67.4572  68.5716  144.672  144.912  8137.87
   400.1253  16180.2  16202.4  14445.6  16122.3  16124.7  59.1197  60.0688  127.367  127.485  14624
   401.3784  33418.6  33464.4  29907  33378.2  33383.1  53.2914  54.1032  114.607  114.441  30243.1
   402.6316  64566.6  64655.2  57837.8  64550.7  64560.3  49.8328  50.526  105.914  105.241  58462
   403.8847  53717.2  53790.9  48115.2  53699.7  53707.8  44.2042  44.814  95.0224  94.5201  48636
   405.1378  25442.6  25477.3  22769.7  25412.4  25416.2  38.0448  38.5929  83.9683  83.9166  23024.6
   406.3910  12907.8  12925.3  11534.9  12873.7  12875.6  33.7026  34.194  75.7699  75.9161  11671.2
   407.6441  7519.19  7529.23  6706.45  7484.86  7485.96  30.403  30.844  69.3092  69.5385  6791.2
   408.8972  4861.31  4867.67  4325.87  4827.97  4828.68  27.7169  28.114  63.9488  64.2176  4384.65
   410.1504  3384.9  3389.21  3004.21  3352.92  3353.41  25.4538  25.8126  59.3841  59.6734  3048.22
   411.4035  2487.76  2490.83  2201.65  2457.2  2457.56  23.5104  23.8358  55.4377  55.7385  2236.41
   412.6566  1904.36  1906.61  1680.15  1875.18  1875.44  21.8212  22.1172  51.9905  52.2979  1708.7
   413.9098  1504.57  1506.26  1323.09  1476.67  1476.88  20.3397  20.6098  48.9552  49.2664  1347.24
   415.1629  1219.01  1220.31  1068.3  1192.31  1192.48  19.0309  19.2781  46.265  46.5781  1089.18
   416.4160  1008.11  1009.1  880.306  982.494  982.631  17.8678  18.0946  43.8668  44.1808  898.675
   417.6692  847.983  848.751  737.729  823.368  823.482  16.8287  17.0374  41.718  42.0322  754.12
   418.9223  723.575  724.168  627.08  699.875  699.971  15.896  16.0883  39.7837  40.0975  641.873
   420.1754  625.008  625.461  539.515  602.146  602.228  15.0552  15.2329  38.035  38.3481  552.993
   421.4286  545.592  545.932  469.047  523.499  523.57  14.2943  14.4587  36.4479  36.76  481.425
   422.6817  480.666  480.914  411.508  459.281  459.343  13.6031  13.7555  35.0021  35.3131  422.952
   423.9348  426.905  427.078  363.923  406.173  406.227  12.9732  13.1147  33.6806  33.9903  374.566
   425.1880  381.886  381.994  324.126  361.756  361.804  12.3973  12.5289  32.4686  32.777  334.074
   426.4411  343.807  343.861  290.508  324.236  324.279  11.8693  11.9918  31.3539  31.6608  299.847
   427.6942  311.308  311.317  261.855  292.256  292.295  11.3837  11.4979  30.3256  30.631  270.657
   428.9474  283.349  283.319  237.236  264.779  264.814  10.936  11.0427  29.3744  29.6783  245.56
   430.2005  259.118  259.054  215.928  240.998  241.03  10.5223  10.6219  28.4924  28.7947  223.826
   431.4536  237.978  237.885  197.365  220.28  220.309  10.139  10.2322  27.6724  27.9731  204.879
   432.7068  219.425  219.306  181.094  202.121  202.147  9.78314  9.87035  26.9084  27.2075  188.261
   433.9599  203.049  202.908  166.754  186.116  186.14  9.45201  9.5337  26.195  26.4924  173.605
   435.2130  188.523  188.362  154.051  171.938  171.96  9.14328  9.21987  25.5273  25.8231  160.614
   436.4662  175.576  175.398  142.745  159.319  159.34  8.85489  8.92673  24.9012  25.1954  149.044
   437.7193  163.987  163.793  132.638  148.04  148.059  8.58499  8.65242  24.313  24.6056  138.696
   438.9724  153.57  153.362  123.568  137.916  137.934  8.33195  8.39527  23.7594  24.0504  129.402
   440.2256  144.172  143.952  115.396  128.796  128.812  8.09432  8.15382  23.2374  23.5268  121.023
   441.4787  135.663  135.433  108.009  120.551  120.566  7.87081  7.92672  22.7444  23.0322  113.444
   442.7318  127.934  127.694  101.308  113.072  113.087  7.66024  7.71281  22.278  22.5642  106.566
   443.9850  120.892  120.643  95.2121  106.269  106.282  7.46156  7.511  21.8361  22.1207  100.303
   445.2381  114.456  114.2  89.65  100.061  100.074  7.27385  7.32035  21.4168  21.6998  94.5856
   446.4912  108.56  108.296  84.5611  94.381  94.3931  7.09625  7.13999  21.0183  21.2997  89.3512
   447.7444  103.142  102.873  79.8934  89.1713  89.1828  6.92799  6.96915  20.6391  20.919  84.5469
   448.9975  98.1535  97.8784  75.6016  84.3813  84.3922  6.76838  6.8071  20.2778  20.5561  80.1267
   450.0000  94.4409  94.1617  72.4123  80.8216  80.8321  6.64649  6.68336  20.0008  20.2779  76.84