File: examples/mos2-example2/ref/raman_spectra3.dat
#Raman spectra
#Laser energy   2.54 eV
#Raman shift (cm-1), Raman Spectra (XX,YY,ZZ,s+s+,s-s-,XY,YX,s+s-,s-s+,nonpol)
   350.0000  161.148  156.868  42.2488  80.3836  80.9895  67.5883  68.5353  146.053  146.713  85.7622
   351.2531  170.418  165.915  44.3165  84.3187  84.9536  72.6441  73.6728  156.359  157.019  90.4632
   352.5063  180.66  175.911  46.5396  88.55  89.2159  78.3339  79.4544  167.966  168.626  95.6456
   353.7594  192.019  186.999  48.9344  93.1079  93.8072  84.7672  85.9915  181.101  181.761  101.378
   355.0125  204.675  199.355  51.5187  98.0271  98.7622  92.0788  93.4208  196.039  196.701  107.741
   356.2657  218.842  213.188  54.3132  103.347  104.12  100.435  101.911  213.122  213.787  114.836
   357.5188  234.788  228.758  57.3414  109.111  109.926  110.043  111.674  232.778  233.447  122.782
   358.7719  252.841  246.389  60.6299  115.372  116.232  121.165  122.975  255.546  256.22  131.729
   360.0251  273.415  266.486  64.2095  122.187  123.096  134.135  136.153  282.113  282.793  141.864
   361.2782  297.038  289.564  68.1157  129.625  130.586  149.384  151.647  313.366  314.055  153.422
   362.5313  324.39  316.288  72.3892  137.763  138.782  167.477  170.03  350.47  351.17  166.704
   363.7845  356.361  347.532  77.0777  146.693  147.773  189.164  192.064  394.97  395.685  182.104
   365.0376  394.142  384.459  82.2366  156.52  157.668  215.458  218.78  448.959  449.693  200.14
   366.2907  439.35  428.655  87.931  167.37  168.591  247.759  251.599  515.322  516.08  221.516
   367.5439  494.241  482.328  94.2378  179.389  180.689  288.035  292.52  598.128  598.918  247.201
   368.7970  562.036  548.633  101.248  192.752  194.138  339.129  344.433  703.254  704.087  278.573
   370.0501  647.483  632.22  109.07  207.67  209.148  405.269  411.631  839.448  840.338  317.646
   371.3033  757.824  740.182  117.833  224.392  225.969  492.948  500.715  1020.17  1021.14  367.469
   372.5564  904.568  883.797  127.697  243.227  244.907  612.553  622.235  1266.97  1268.05  432.856
   373.8095  1106.94  1081.9  138.853  264.551  266.335  781.495  793.883  1616.04  1617.29  521.788
   375.0627  1399.01  1367.87  151.536  288.833  290.715  1030.7  1047.08  2131.8  2133.31  648.306
   376.3158  1845.76  1805.37  166.041  316.67  318.625  1419.09  1441.69  2937.34  2939.27  838.976
   377.5689  2582.85  2527.34  182.734  348.842  350.806  2069.4  2102.42  4289.84  4292.52  1148.82
   378.8221  3927.48  3844.61  202.086  386.43  388.242  3266.98  3319.17  6789.69  6793.87  1705.3
   380.0752  6723.59  6584.13  224.71  431.1  432.328  5765.92  5858.13  12030.4  12038  2844.46
   381.3283  13362.1  13088.8  251.439  485.858  485.289  11713.2  11900.6  24538.7  24554.9  5521.92
   382.5815  26214.5  25682.4  283.362  554.473  549.948  23810.3  24191.5  49383.9  49410.5  10940.2
   383.8346  23871.8  23386  321.148  625.621  622.023  23069.4  23438.9  46255.9  46262.5  10657.6
   385.0877  11845.5  11600.4  366.667  704.467  705.876  11183.3  11362.3  22289.7  22291.5  5429.38
   386.3409  6399.16  6262.53  423  807.958  812.247  5550.31  5639.09  11114.6  11116.3  2994.87
   387.5940  4171.39  4078.22  493.558  940.594  946.799  3169.44  3220.06  6375.11  6376.61  2023.97
   388.8471  3192.65  3117.47  583.372  1110.64  1118.6  2018.93  2051.1  4074.83  4076.09  1624.04
   390.1003  2784.23  2715.1  700.031  1332.07  1342  1390.09  1412.18  2813.23  2814.3  1489.42
   391.3534  2702.3  2631.93  855.289  1627.06  1639.44  1012.72  1028.75  2054.13  2055.07  1514.59
   392.6065  2867.13  2789.51  1068.08  2031.53  2047.17  769.751  781.863  1564.36  1565.18  1671.03
   393.8596  3284.14  3192.53  1370.38  2606.29  2626.49  604.65  614.085  1230.94  1231.68  1973.36
   395.1128  4034.48  3919.47  1819.56  3460.35  3487.3  487.645  495.158  994.226  994.887  2479.63
   396.3659  5315.54  5161.69  2526.22  4804.08  4841.59  401.959  408.023  820.481  821.065  3319.89
   397.6190  7570.17  7348.8  3724.17  7082.03  7137.42  337.671  342.576  689.638  690.131  4780.32
   398.8722  11864.7  11515.5  5966.95  11346.8  11435.7  288.84  292.721  589.437  589.796  7546.34
   400.1253  21082.8  20459.8  10744.7  20432.1  20592.2  252.372  255.152  512.828  512.942  13468.8
   401.3784  43336.9  42053.4  22245  42300.8  42632.3  228.378  229.53  457.738  457.297  27752.9
   402.6316  83571.2  81094  43020.1  81806.3  82447.5  216.692  215.409  422.427  421.004  53570.9
   403.8847  69534.3  67473.2  35788.4  68054.7  68588.1  190.217  189.293  372.683  371.581  44570.2
   405.1378  32981  32004  16936.2  32205.7  32458.1  159.264  159.885  320.313  320.073  21123.3
   406.3910  16770.7  16274.5  8579.71  16315.1  16442.9  138.359  139.55  282.481  282.618  10726.9
   407.6441  9797.38  9507.83  4988.3  9485.73  9560.04  122.991  124.325  253.23  253.523  6256
   408.8972  6354.37  6166.83  3217.61  6118.61  6166.53  110.705  112.034  229.217  229.583  4049.56
   410.1504  4439.31  4308.48  2234.55  4249.25  4282.52  100.458  101.73  208.905  209.308  2823.06
   411.4035  3273.77  3177.44  1637.6  3114.09  3138.47  91.7152  92.9129  191.431  191.854  2077.15
   412.6566  2514.45  2440.57  1249.71  2376.47  2395.07  84.1501  85.2692  176.231  176.665  1591.62
   413.9098  1993.06  1934.58  984.124  1871.44  1886.08  77.5384  78.5809  162.9  163.339  1258.55
   415.1629  1619.85  1572.38  794.608  1511.06  1522.88  71.7152  72.6855  151.128  151.57  1020.38
   416.4160  1343.57  1304.25  654.777  1245.15  1254.89  66.5541  67.4574  140.673  141.116  844.26
   417.6692  1133.32  1100.19  548.727  1043.49  1051.65  61.9549  62.7965  131.342  131.785  710.381
   418.9223  969.571  941.259  466.425  886.982  893.914  57.8367  58.6218  122.976  123.417  606.235
   420.1754  839.516  815.027  401.294  763.127  769.09  54.1334  54.8668  115.443  115.882  523.617
   421.4286  734.471  713.065  348.88  663.456  668.638  50.7901  51.4762  108.636  109.073  456.966
   422.6817  648.38  629.499  306.082  582.07  586.615  47.761  48.4038  102.462  102.897  402.408
   423.9348  576.919  560.131  270.688  514.764  518.783  45.0075  45.6105  96.8449  97.2771  357.177
   425.1880  516.932  501.899  241.087  458.473  462.052  42.4968  43.0633  91.7186  92.1481  319.254
   426.4411  466.071  452.525  216.081  410.922  414.129  40.2008  40.7338  87.0268  87.4536  287.139
   427.6942  422.562  410.287  194.769  370.393  373.283  38.0956  38.5977  82.7213  83.1453  259.7
   428.9474  385.043  373.862  176.457  335.57  338.188  36.1604  36.6339  78.7601  79.1813  236.066
   430.2005  352.454  342.223  160.608  305.432  307.814  34.3771  34.8244  75.1072  75.5256  215.562
   431.4536  323.961  314.559  146.801  279.175  281.352  32.7302  33.1531  71.7308  72.1464  197.656
   432.7068  298.899  290.226  134.699  256.161  258.158  31.2061  31.6063  68.6034  69.0163  181.925
   433.9599  276.734  268.706  124.032  235.877  237.715  29.7925  30.1718  65.7007  66.1109  168.028
   435.2130  257.032  249.575  114.584  217.908  219.607  28.4792  28.8389  63.0014  63.4089  155.689
   436.4662  239.438  232.491  106.174  201.916  203.489  27.2566  27.5981  60.4866  60.8914  144.682
   437.7193  223.658  217.169  98.6568  187.621  189.082  26.1165  26.4411  58.1396  58.5417  134.822
   438.9724  209.449  203.372  91.9101  174.791  176.152  25.0517  25.3604  55.9455  56.345  125.952
   440.2256  196.607  190.902  85.832  163.232  164.503  24.0555  24.3494  53.891  54.2879  117.945
   441.4787  184.961  179.593  80.3372  152.783  153.972  23.1221  23.4022  51.9644  52.3588  110.691
   442.7318  174.365  169.303  75.3534  143.305  144.421  22.2464  22.5134  50.155  50.5468  104.098
   443.9850  164.695  159.912  70.8191  134.682  135.731  21.4235  21.6783  48.4533  48.8426  98.0874
   445.2381  155.845  151.317  66.6819  126.815  127.801  20.6493  20.8926  46.8506  47.2375  92.5923
   446.4912  147.724  143.431  62.8968  119.616  120.547  19.9199  20.1524  45.3394  45.7239  87.5549
   447.7444  140.253  136.175  59.425  113.014  113.893  19.232  19.4543  43.9126  44.2946  82.9255
   448.9975  133.364  129.484  56.2327  106.943  107.775  18.5823  18.795  42.5638  42.9434  78.661
   450.0000  128.231  124.499  53.8605  102.432  103.229  18.0882  18.2936  41.537  41.9149  75.4865