File: examples/mos2-example2/ref/raman_spectra2.dat
#Raman spectra
#Laser energy   2.33 eV
#Raman shift (cm-1), Raman Spectra (XX,YY,ZZ,s+s+,s-s-,XY,YX,s+s-,s-s+,nonpol)
   350.0000  127.395  125.321  45.0021  79.7954  80.2034  37.5212  38.0537  83.8903  84.4021  84.8074
   351.2531  134.098  131.939  47.2045  83.7012  84.1286  40.2072  40.7871  89.3457  89.8562  89.0257
   352.5063  141.454  139.202  49.5726  87.9009  88.3492  43.2314  43.8646  95.496  96.0055  93.64
   353.7594  149.554  147.2  52.1233  92.4248  92.8955  46.6524  47.3457  102.462  102.97  98.7007
   355.0125  158.509  156.043  54.8761  97.3071  97.8019  50.5419  51.3034  110.39  110.898  104.267
   356.2657  168.452  165.861  57.8528  102.587  103.107  54.9886  55.8281  119.463  119.972  110.41
   357.5188  179.543  176.815  61.0783  108.308  108.856  60.1033  61.0322  129.91  130.42  117.215
   358.7719  191.983  189.1  64.5812  114.521  115.1  66.0257  67.0581  142.017  142.528  124.784
   360.0251  206.016  202.961  68.3941  121.285  121.896  72.9338  74.0867  156.151  156.665  133.246
   361.2782  221.954  218.705  72.5548  128.666  129.312  81.0576  82.3522  172.787  173.304  142.756
   362.5313  240.194  236.725  77.1069  136.741  137.426  90.6983  92.1608  192.544  193.066  153.513
   363.7845  261.25  257.529  82.101  145.602  146.329  102.256  103.92  216.248  216.777  165.769
   365.0376  285.803  281.791  87.5962  155.353  156.124  116.272  118.179  245.015  245.552  179.853
   366.2907  314.767  310.418  93.6618  166.117  166.938  133.491  135.698  280.385  280.934  196.199
   367.5439  349.407  344.659  100.38  178.04  178.914  154.964  157.544  324.528  325.092  215.397
   368.7970  391.512  386.286  107.847  191.295  192.227  182.208  185.262  380.581  381.165  238.269
   370.0501  443.696  437.888  116.178  206.089  207.082  217.477  221.143  453.211  453.821  265.998
   371.3033  509.916  503.382  125.514  222.671  223.729  264.235  268.713  549.599  550.246  300.343
   372.5564  596.416  588.952  136.021  241.341  242.468  328.022  333.607  681.244  681.944  344.043
   373.8095  713.564  704.866  147.904  262.469  263.666  418.125  425.274  867.459  868.235  401.579
   375.0627  879.643  869.233  161.415  286.514  287.775  551.037  560.492  1142.61  1143.5  480.747
   376.3158  1129.38  1116.44  176.866  314.052  315.36  758.194  771.243  1572.39  1573.46  596.174
   377.5689  1535.07  1518.12  194.651  345.825  347.136  1105.06  1124.12  2294.01  2295.4  777.943
   378.8221  2265.4  2241.35  215.269  382.833  384.036  1743.82  1773.97  3627.84  3629.83  1095.42
   380.0752  3768.62  3730.15  239.378  426.531  427.327  3076.72  3129.99  6424.16  6427.46  1730.96
   381.3283  7313.86  7241.7  267.876  479.339  478.895  6248.92  6357.22  13098.5  13105  3202.36
   382.5815  14160.2  14023.1  301.933  544.334  541.165  12701.4  12921.6  26354.5  26366.4  6161.23
   383.8346  12950.6  12824.4  342.177  615.281  612.738  12306.2  12519.7  24682  24690.8  6040.33
   385.0877  6610.63  6543.66  390.61  696.614  697.503  5966.27  6069.71  11896  11900.2  3249.82
   386.3409  3770.9  3730.03  450.588  800.8  803.657  2961.68  3012.97  5934.37  5936.74  1980.16
   387.5940  2651.12  2619.97  525.733  933.1  937.258  1691.73  1720.99  3405.95  3407.51  1514.53
   388.8471  2210.91  2182.84  621.395  1102.23  1107.58  1078.05  1096.65  2178.75  2179.89  1374.17
   390.1003  2096.88  2068.5  745.652  1322.25  1328.92  742.628  755.403  1505.67  1506.57  1400.11
   391.3534  2190.02  2158.91  911.026  1615.24  1623.56  541.331  550.61  1100.66  1101.41  1545.21
   392.6065  2464.69  2428.47  1137.68  2016.9  2027.42  411.723  418.748  839.332  839.982  1810.05
   393.8596  2951.93  2907.52  1459.68  2587.61  2601.2  323.647  329.137  661.423  661.996  2229.66
   395.1128  3745.25  3688.03  1938.12  3435.64  3453.77  261.223  265.619  535.103  535.61  2884.02
   396.3659  5046.71  4968.82  2690.84  4769.84  4795.07  215.5  219.086  442.379  442.823  3937.18
   397.6190  7296.99  7183.65  3966.84  7031.62  7068.88  181.182  184.143  372.544  372.914  5742.01
   398.8722  11548.9  11368.9  6355.77  11266.1  11325.9  155.092  157.545  319.058  319.321  9138.23
   400.1253  20643.7  20321.1  11444.9  20286.9  20394.6  135.554  137.55  278.161  278.224  16389.4
   401.3784  42569.9  41904  23694.5  42000.2  42223.2  122.558  124.043  248.75  248.363  33858.8
   402.6316  82196.8  80910.4  45823.4  81225  81656.3  115.973  116.828  229.899  228.713  65424.5
   403.8847  68386.2  67315.9  38120.5  67571.1  67929.9  101.964  102.756  203.326  202.402  54429.3
   405.1378  32404.2  31897.2  18039.8  31976.8  32146.6  85.76  86.7402  175.342  175.123  25775.1
   406.3910  16450.7  16193.4  9138.77  16199.1  16285.1  74.7411  75.7383  155.124  155.213  13072
   407.6441  9590.81  9440.84  5313.35  9418.3  9468.29  66.5969  67.5425  139.488  139.705  7611.03
   408.8972  6206.01  6109  3427.27  6075.11  6107.35  60.0661  60.9429  126.648  126.925  4917.41
   410.1504  4324.94  4257.35  2380.16  4219.03  4241.41  54.6102  55.4173  115.783  116.091  3421.14
   411.4035  3181.27  3131.55  1744.31  3091.94  3108.34  49.9504  50.6919  106.433  106.759  2511.92
   412.6566  2437.07  2398.98  1331.14  2359.57  2372.08  45.9151  46.5968  98.2971  98.632  1920.65
   413.9098  1926.74  1896.62  1048.25  1858.12  1867.97  42.3864  43.014  91.158  91.4982  1515.48
   415.1629  1561.95  1537.52  846.386  1500.3  1508.25  39.2771  39.856  84.8513  85.1943  1226.08
   416.4160  1292.31  1272.08  697.443  1236.29  1242.84  36.5202  37.0552  79.2479  79.5919  1012.34
   417.6692  1087.42  1070.39  584.483  1036.06  1041.55  34.0625  34.558  74.2439  74.588  850.066
   418.9223  928.108  913.558  496.818  880.666  885.329  31.861  32.3208  69.7549  70.0984  723.994
   420.1754  801.777  789.194  427.443  757.692  761.703  29.8806  30.3082  65.711  66.0535  624.115
   421.4286  699.905  688.906  371.613  658.729  662.215  28.0921  28.4904  62.0543  62.3954  543.646
   422.6817  616.551  606.849  326.026  577.922  580.98  26.471  26.8428  58.736  59.0754  477.866
   423.9348  547.475  538.845  288.326  511.095  513.799  24.9969  25.3445  55.7148  56.0524  423.404
   425.1880  489.583  481.852  256.796  455.205  457.613  23.6522  23.9777  52.9556  53.2914  377.802
   426.4411  440.577  433.607  230.162  407.992  410.15  22.4221  22.7273  50.4286  50.7624  339.236
   427.6942  398.721  392.4  207.46  367.752  369.696  21.2937  21.5803  48.1077  48.4396  306.328
   428.9474  362.684  356.922  187.955  333.177  334.938  20.2559  20.5254  45.9709  46.3007  278.02
   430.2005  331.43  326.152  171.074  303.253  304.856  19.2993  19.553  43.9987  44.3265  253.493
   431.4536  304.145  299.29  156.367  277.183  278.648  18.4154  18.6546  42.1742  42.5  232.101
   432.7068  280.181  275.698  143.476  254.333  255.677  17.5969  17.8227  40.4828  40.8066  213.329
   433.9599  259.018  254.862  132.115  234.194  235.431  16.8376  17.0509  38.9115  39.2333  196.766
   435.2130  240.233  236.368  122.05  216.353  217.496  16.1316  16.3334  37.4489  37.7686  182.078
   436.4662  223.481  219.875  113.093  200.475  201.534  15.4741  15.6651  36.0849  36.4027  168.991
   437.7193  208.477  205.104  105.086  186.281  187.265  14.8607  15.0417  34.8107  35.1264  157.28
   438.9724  194.985  191.82  97.8991  173.543  174.459  14.2875  14.4591  33.6182  33.932  146.759
   440.2256  182.806  179.83  91.4251  162.066  162.922  13.7508  13.9137  32.5004  32.8122  137.27
   441.4787  171.776  168.97  85.5722  151.691  152.492  13.2478  13.4025  31.4509  31.7609  128.683
   442.7318  161.751  159.101  80.2636  142.281  143.032  12.7755  12.9225  30.4643  30.7723  120.887
   443.9850  152.614  150.105  75.4339  133.72  134.426  12.3314  12.4713  29.5352  29.8414  113.786
   445.2381  144.262  141.882  71.0271  125.908  126.573  11.9133  12.0465  28.6592  28.9635  107.301
   446.4912  136.607  134.345  66.9954  118.762  119.388  11.5192  11.646  27.8321  28.1346  101.362
   447.7444  129.572  127.419  63.2973  112.206  112.798  11.1472  11.2681  27.0503  27.3509  95.9097
   448.9975  123.091  121.039  59.897  106.179  106.739  10.7957  10.9109  26.3102  26.6091  90.8913
   450.0000  118.268  116.29  57.3702  101.7  102.236  10.5282  10.6392  25.7462  26.0437  87.1589