File: examples/mos2-example1/ref/raman_spectra1.dat
#Raman spectra
#Laser energy   1.95 eV
#Raman shift (cm-1), Raman Spectra (XX,YY,ZZ,s+s+,s-s-,XY,YX,s+s-,s-s+,nonpol)
   350.0000  83.0077  83.2496  56.484  64.6446  64.6413  14.3257  14.6011  32.8698  33.0284  69.184
   351.2531  87.3048  87.5656  59.2498  67.8103  67.8066  15.4734  15.7707  35.17  35.3277  72.4019
   352.5063  91.9853  92.2664  62.2238  71.2143  71.2101  16.7646  17.0867  37.761  37.9178  75.9087
   353.7594  97.0989  97.4018  65.4273  74.8811  74.8764  18.2244  18.5744  40.693  40.849  79.7373
   355.0125  102.704  103.031  68.8847  78.8385  78.8331  19.8832  20.265  44.0279  44.1831  83.9264
   356.2657  108.87  109.222  72.6235  83.118  83.1119  21.7789  22.197  47.842  47.9965  88.5212
   357.5188  115.681  116.061  76.6749  87.7556  87.7486  23.9589  24.4188  52.2306  52.3846  93.5752
   358.7719  123.237  123.647  81.075  92.7923  92.7842  26.4829  26.9911  57.3141  57.4677  99.1527
   360.0251  131.662  132.105  85.8647  98.2753  98.2659  29.4271  29.9916  63.2459  63.3992  105.33
   361.2782  141.109  141.588  91.0916  104.259  104.248  32.8901  33.5209  70.2243  70.3776  112.203
   362.5313  151.77  152.289  96.8105  110.806  110.793  37.0009  37.7105  78.5088  78.6624  119.884
   363.7845  163.889  164.451  103.085  117.989  117.974  41.9315  42.7355  88.4447  88.599  128.521
   365.0376  177.782  178.393  109.989  125.894  125.876  47.9147  48.8332  100.499  100.654  138.294
   366.2907  193.87  194.535  117.611  134.621  134.599  55.2717  56.3311  115.316  115.473  149.443
   367.5439  212.719  213.446  126.053  144.287  144.261  64.456  65.6913  133.802  133.962  162.281
   368.7970  235.118  235.914  135.436  155.033  155  76.1239  77.5827  157.27  157.435  177.237
   370.0501  262.197  263.072  145.907  167.025  166.985  91.2532  93.0018  187.672  187.842  194.908
   371.3033  295.636  296.602  157.64  180.465  180.414  111.352  113.485  228.008  228.188  216.17
   372.5564  338.041  339.113  170.846  195.596  195.53  138.838  141.498  283.085  283.28  242.352
   373.8095  393.664  394.864  185.782  212.715  212.627  177.787  181.193  360.974  361.192  275.594
   375.0627  469.884  471.242  202.764  232.188  232.067  235.469  239.98  476.031  476.288  319.568
   376.3158  580.499  582.057  222.182  254.473  254.301  325.837  332.08  655.686  656.014  381.099
   377.5689  753.795  755.626  244.528  280.152  279.891  478.187  487.348  957.224  957.689  474.173
   378.8221  1054.74  1056.98  270.42  309.982  309.555  761.321  775.906  1514.32  1515.08  631.095
   380.0752  1653.49  1656.44  300.656  345.007  344.228  1358.98  1385.02  2681.6  2683.09  937.251
   381.3283  3033.66  3038.04  336.277  386.789  385.165  2791.29  2844.77  5466.19  5469.61  1633.1
   382.5815  5853.18  5860.38  378.649  437.237  433.983  5532.55  5638.54  11004.5  11009  2938.33
   383.8346  5890.82  5898.35  429.366  494.848  491.943  4918.3  5012.47  10368.2  10365  2707.8
   385.0877  3195.57  3200.92  490.871  563.383  562.022  2347.54  2392.49  5006.66  5004.47  1587.94
   386.3409  1951.12  1955.7  566.684  649.294  648.642  1178.27  1200.83  2494.39  2493.59  1127.84
   387.5940  1498.27  1502.91  661.511  757.445  757.101  679.596  692.609  1429.57  1429.27  995.962
   388.8471  1365.86  1370.99  782.202  895.375  895.188  435.882  444.228  913.251  913.147  1008.07
   390.1003  1397.58  1403.54  939.017  1074.72  1074.63  301.497  307.269  630.279  630.254  1107.7
   391.3534  1547.69  1554.86  1147.83  1313.6  1313.58  220.314  224.531  460.101  460.109  1285.37
   392.6065  1817.84  1826.7  1434.23  1641.28  1641.32  167.776  170.986  350.34  350.356  1556.15
   393.8596  2244.1  2255.44  1841.48  2107.27  2107.37  131.927  134.45  275.635  275.643  1959.08
   395.1128  2908.19  2923.22  2447.29  2800.47  2800.64  106.429  108.462  222.598  222.583  2571.31
   396.3659  3977.53  3998.4  3401.83  3892.72  3892.99  87.6868  89.3585  183.66  183.602  3545.83
   397.6190  5812.83  5843.63  5023.2  5748.02  5748.46  73.5555  74.9524  154.31  154.174  5209.32
   398.8722  9274.72  9324.18  8066.8  9230.77  9231.5  62.7227  63.9044  131.777  131.491  8339.26
   400.1253  16689.6  16779  14571.9  16674.4  16675.8  54.4329  55.4393  114.416  113.806  15035.7
   401.3784  34575.3  34760.8  30250  34614.7  34617.5  48.4639  49.3163  101.574  100.184  31181.6
   402.6316  66159  66514.4  57929.3  66287.6  66293.1  44.5854  45.2932  92.6807  89.9115  59689.7
   403.8847  53775.4  54064.2  47083  53876.4  53880.8  39.136  39.767  81.7643  79.5353  48515.4
   405.1378  25405  25541.3  22228.2  25435.5  25437.6  33.5307  34.1174  70.9707  69.9796  22912.1
   406.3910  12927.4  12996.7  11298.3  12928.5  12929.6  29.4677  30.0043  62.9243  62.4774  11652.3
   407.6441  7548.08  7588.43  6587.55  7538.05  7538.67  26.3128  26.8009  56.5575  56.3447  6798.65
   408.8972  4886.53  4912.59  4257.74  4872.08  4872.48  23.7176  24.1619  51.2714  51.1742  4397.7
   410.1504  3404.57  3422.67  2961.18  3388.45  3388.72  21.5205  21.926  46.7742  46.741  3061.19
   411.4035  2502.45  2515.71  2172.44  2485.9  2486.1  19.6297  20.0009  42.8931  42.8985  2247.88
   412.6566  1915.02  1925.13  1659.22  1898.63  1898.78  17.9849  18.3259  39.5106  39.541  1718.48
   413.9098  1512.05  1520.01  1307.45  1496.11  1496.22  16.5424  16.8567  36.5401  36.5874  1355.47
   415.1629  1224  1230.41  1056.22  1208.63  1208.72  15.269  15.5596  33.9149  33.9741  1096.09
   416.4160  1011.11  1016.38  870.725  996.368  996.442  14.1385  14.4079  31.5821  31.6498  904.486
   417.6692  849.4  853.808  729.96  835.292  835.354  13.13  13.3804  29.4989  29.573  759.012
   418.9223  723.709  727.447  620.664  710.225  710.277  12.2261  12.4595  27.6304  27.7093  645.999
   420.1754  624.095  627.302  534.133  611.209  611.253  11.4128  11.6309  25.9477  26.0302  556.478
   421.4286  543.816  546.595  464.473  531.498  531.536  10.6783  10.8825  24.4266  24.5119  484.37
   422.6817  478.174  480.603  407.575  466.39  466.423  10.0127  10.2042  23.0468  23.1343  425.44
   423.9348  423.813  425.954  360.508  412.531  412.56  9.40751  9.58755  21.7912  21.8804  376.663
   425.1880  378.289  380.188  321.134  367.476  367.501  8.85567  9.02524  20.6451  20.7356  335.836
   426.4411  339.782  341.477  287.866  329.407  329.43  8.35107  8.51105  19.596  19.6875  301.32
   427.6942  306.919  308.44  259.506  296.954  296.974  7.88844  8.03963  18.6331  18.7253  271.879
   428.9474  278.648  280.019  235.134  269.066  269.084  7.46325  7.60635  17.7471  17.8399  246.564
   430.2005  254.149  255.391  214.037  244.925  244.941  7.07156  7.20721  16.9299  17.0232  224.638
   431.4536  232.779  233.909  195.655  223.89  223.904  6.70993  6.83869  16.1745  16.2681  205.522
   432.7068  214.026  215.057  179.54  205.45  205.464  6.37536  6.49776  15.4747  15.5685  188.755
   433.9599  197.479  198.423  165.336  189.196  189.209  6.06522  6.1817  14.8251  14.919  173.967
   435.2130  182.804  183.671  152.752  174.796  174.807  5.77718  5.88817  14.221  14.3149  160.858
   436.4662  169.727  170.526  141.551  161.979  161.989  5.50918  5.61507  13.6581  13.7519  149.184
   437.7193  158.026  158.763  131.537  150.52  150.529  5.25942  5.36055  13.1327  13.2264  138.741
   438.9724  147.511  148.194  122.549  140.235  140.243  5.02627  5.12295  12.6414  12.735  129.362
   440.2256  138.029  138.662  114.451  130.968  130.976  4.80829  4.90081  12.1814  12.2748  120.908
   441.4787  129.448  130.036  107.129  122.59  122.598  4.60419  4.69281  11.7499  11.8431  113.26
   442.7318  121.656  122.204  100.488  114.991  114.998  4.41281  4.49779  11.3446  11.4376  106.319
   443.9850  114.56  115.071  94.4457  108.076  108.083  4.23313  4.31467  10.9634  11.0561  100.001
   445.2381  108.078  108.556  88.932  101.767  101.773  4.0642  4.14252  10.6044  10.6968  94.2322
   446.4912  102.143  102.589  83.8872  95.9941  95.9998  3.90519  3.98047  10.2658  10.3578  88.9514
   447.7444  96.6925  97.111  79.2597  90.6987  90.7041  3.75533  3.82775  9.94603  10.0378  84.1049
   448.9975  91.6765  92.0691  75.0046  85.8296  85.8347  3.61394  3.68366  9.64373  9.73513  79.6461
   450.0000  87.9456  88.319  71.8424  82.2111  82.2159  3.50649  3.57416  9.41359  9.50471  76.3311