File: examples/mos2-example1/ref/raman_spectra3.dat
#Raman spectra
#Laser energy   2.54 eV
#Raman shift (cm-1), Raman Spectra (XX,YY,ZZ,s+s+,s-s-,XY,YX,s+s-,s-s+,nonpol)
   350.0000  152.772  148.731  42.0526  81.8056  82.3995  64.2441  65.2836  133.292  133.533  85.041
   351.2531  162.14  157.858  44.1117  85.8125  86.435  69.3909  70.5137  143.706  143.948  89.8086
   352.5063  172.476  167.929  46.3259  90.1211  90.7743  75.1813  76.3979  155.423  155.666  95.0631
   353.7594  183.927  179.086  48.7109  94.7626  95.4486  81.7272  83.0498  168.668  168.912  100.874
   355.0125  196.669  191.501  51.2849  99.7721  100.494  89.1658  90.6089  183.717  183.962  107.323
   356.2657  210.915  205.383  54.0684  105.19  105.949  97.6669  99.2478  200.914  201.161  114.512
   357.5188  226.929  220.987  57.0848  111.06  111.861  107.443  109.182  220.685  220.934  122.564
   358.7719  245.036  238.63  60.3606  117.437  118.282  118.761  120.684  243.57  243.822  131.629
   360.0251  265.645  258.712  63.9266  124.379  125.272  131.963  134.1  270.257  270.513  141.898
   361.2782  289.275  281.738  67.818  131.955  132.901  147.492  149.88  301.635  301.895  153.609
   362.5313  316.594  308.36  72.0757  140.245  141.247  165.926  168.613  338.868  339.133  167.07
   363.7845  348.476  339.431  76.747  149.342  150.406  188.036  191.082  383.503  383.774  182.68
   365.0376  386.088  376.085  81.8874  159.354  160.485  214.866  218.346  437.634  437.912  200.969
   366.2907  431.01  419.865  87.5617  170.408  171.612  247.856  251.872  504.148  504.435  222.654
   367.5439  485.441  472.915  93.8464  182.654  183.937  289.04  293.724  587.115  587.413  248.729
   368.7970  552.513  538.286  100.832  196.271  197.64  341.36  346.893  692.415  692.726  280.605
   370.0501  636.825  620.465  108.628  211.472  212.935  409.203  415.836  828.798  829.123  320.352
   371.3033  745.367  726.264  117.363  228.514  230.077  499.326  507.422  1009.72  1010.07  371.113
   372.5564  889.203  866.473  127.194  247.71  249.379  622.58  632.675  1256.74  1257.1  437.869
   373.8095  1086.72  1059.01  138.313  269.443  271.221  797.229  810.158  1606.03  1606.42  528.911
   375.0627  1370.29  1335.46  150.955  294.192  296.076  1055.88  1073.01  2121.98  2122.39  658.905
   376.3158  1801.22  1755.57  165.411  322.563  324.535  1461.1  1484.81  2927.59  2928  855.79
   377.5689  2506.3  2442.97  182.045  355.349  357.357  2144.25  2179.04  4279.75  4280.11  1177.91
   378.8221  3778.68  3683.49  201.317  393.646  395.55  3413.84  3469.25  6777.99  6778.08  1761.79
   380.0752  6389.2  6228.73  223.817  439.134  440.553  6093.79  6192.71  12012.8  12011.9  2971.22
   381.3283  12533.1  12219.1  250.312  494.815  494.672  12516.4  12719.6  24501.2  24497.4  5834.83
   382.5815  25197.5  24566.8  281.808  564.136  560.69  24808.4  25211.1  49329.2  49329.8  11291.1
   383.8346  25180.3  24549.5  319.573  636.064  633.913  22054.1  22412  46448.6  46477.3  10125.6
   385.0877  12695.1  12376.3  365.413  717.52  719.598  10526.7  10697.4  22421  22437.4  5104.45
   386.3409  6754.2  6583.8  421.88  823.78  828.314  5283.54  5369.24  11165.7  11173  2865.85
   387.5940  4342.46  4232.13  492.489  959.562  965.824  3047.44  3096.85  6394.85  6398.65  1970.27
   388.8471  3291.77  3207.4  582.349  1133.54  1141.46  1954.62  1986.29  4081.42  4083.66  1602.93
   390.1003  2853.17  2779.38  699.102  1360.14  1369.95  1352.04  1373.92  2813.48  2814.94  1485.81
   391.3534  2759.72  2687.72  854.569  1662.17  1674.36  988.031  1003.99  2050.95  2051.97  1523.02
   392.6065  2923.68  2846.85  1067.79  2076.57  2091.96  752.478  764.595  1559.16  1559.9  1690.27
   393.8596  3348.38  3259.89  1371  2665.98  2685.85  591.775  601.256  1224.46  1225.01  2004.89
   395.1128  4116.48  4007.24  1822.03  3542.83  3569.34  477.506  485.091  986.882  987.267  2527.9
   396.3659  5431.21  5286.66  2532.69  4924.49  4961.42  393.569  399.727  812.507  812.742  3394.34
   397.6190  7750.36  7543.68  3739.82  7271.43  7326.04  330.381  335.404  681.151  681.206  4901.07
   398.8722  12179.8  11854.6  6005.82  11677.1  11764.9  282.14  286.175  580.44  580.227  7760.51
   400.1253  21718.4  21138.1  10848.9  21093.3  21252  245.682  248.687  503.143  502.416  13901.4
   401.3784  44775.4  43578.4  22521.5  43787.8  44117.3  220.638  222.179  446.733  444.825  28729.4
   402.6316  85513.7  83227.4  43129  83854.2  84485.2  206.285  205.726  408.842  404.874  54920.9
   403.8847  69516.8  67658.2  35053.8  68154  68666.8  180.659  180.416  359.236  356.048  44643.8
   405.1378  32892  32012.7  16549.2  32176  32418.1  152.795  153.776  309.218  307.844  21106.9
   406.3910  16778.6  16330.1  8411.73  16354.7  16477.8  133.376  134.78  272.468  271.886  10753.4
   407.6441  9826.99  9564.38  4904.5  9535.73  9607.45  118.712  120.195  243.672  243.426  6288.26
   408.8972  6384.01  6213.45  3169.93  6163.26  6209.61  106.82  108.267  219.884  219.8  4077.88
   410.1504  4464.38  4345.13  2204.63  4286.45  4318.67  96.825  98.1972  199.702  199.705  2846.28
   411.4035  3293.96  3205.99  1617.4  3144.72  3168.36  88.26  89.5463  182.315  182.369  2095.96
   412.6566  2530.42  2462.85  1235.31  2401.82  2419.86  80.8282  82.0285  167.181  167.267  1606.92
   413.9098  2005.58  1952.04  973.412  1892.62  1906.84  74.3214  75.4399  153.905  154.011  1271.09
   415.1629  1629.58  1586.08  786.368  1528.95  1540.44  68.5839  69.6261  142.183  142.302  1030.76
   416.4160  1351.06  1315  648.264  1260.44  1269.9  63.4944  64.4665  131.775  131.903  852.936
   417.6692  1138.99  1108.59  543.463  1056.68  1064.61  58.9563  59.8643  122.488  122.623  717.69
   418.9223  973.747  947.76  462.091  898.464  905.207  54.8914  55.7408  114.165  114.304  612.437
   420.1754  842.463  819.98  397.668  773.206  779.008  51.2351  52.031  106.676  106.818  528.912
   421.4286  736.394  716.742  345.805  672.369  677.413  47.9339  48.6809  99.9122  100.056  461.511
   422.6817  649.446  632.113  303.444  590.006  594.431  44.9428  45.6451  93.7819  93.927  406.326
   423.9348  577.26  561.853  268.402  521.874  525.787  42.224  42.8853  88.2082  88.354  360.567
   425.1880  516.656  502.865  239.088  464.877  468.362  39.7452  40.369  83.1254  83.2715  322.195
   426.4411  465.268  452.848  214.319  416.719  419.843  37.4789  38.0681  78.4773  78.6234  289.696
   427.6942  421.305  410.057  193.205  375.665  378.48  35.4013  35.9587  74.2154  74.3613  261.925
   428.9474  383.394  373.156  175.06  340.385  342.935  33.492  34.0201  70.298  70.4436  238.005
   430.2005  350.464  341.104  159.353  309.846  312.167  31.7333  32.2342  66.6888  66.8339  217.25
   431.4536  321.674  313.081  145.667  283.236  285.357  30.1097  30.5855  63.3562  63.5008  199.125
   432.7068  296.352  288.433  133.67  259.909  261.855  28.6077  29.0603  60.2726  60.4165  183.2
   433.9599  273.958  266.636  123.094  239.347  241.139  27.2155  27.6463  57.4137  57.5568  169.132
   435.2130  254.055  247.263  113.725  221.13  222.785  25.9225  26.3332  54.758  54.9004  156.641
   436.4662  236.284  229.965  105.386  204.916  206.449  24.7196  25.1115  52.2868  52.4284  145.498
   437.7193  220.347  214.453  97.9306  190.42  191.844  23.5985  23.9729  49.9832  50.124  135.517
   438.9724  205.999  200.487  91.2387  177.408  178.735  22.552  22.9101  47.8324  47.9724  126.539
   440.2256  193.034  187.867  85.2097  165.686  166.925  21.5737  21.9164  45.8211  45.9603  118.433
   441.4787  181.279  176.424  79.7588  155.087  156.247  20.6577  20.986  43.9375  44.0758  111.091
   442.7318  170.585  166.016  74.8144  145.473  146.561  19.7988  20.1137  42.1709  42.3084  104.418
   443.9850  160.829  156.519  70.3157  136.726  137.748  18.9924  19.2946  40.5118  40.6484  98.3345
   445.2381  151.902  147.829  66.2107  128.744  129.707  18.2344  18.5246  38.9516  39.0874  92.7734
   446.4912  143.712  139.858  62.4548  121.441  122.349  17.5208  17.7998  37.4826  37.6176  87.6759
   447.7444  136.181  132.526  59.0096  114.742  115.6  16.8483  17.1167  36.0978  36.2319  82.9918
   448.9975  129.237  125.768  55.8416  108.583  109.394  16.2138  16.4722  34.7908  34.924  78.6771
   450.0000  124.066  120.734  53.4873  104.005  104.782  15.7317  15.9824  33.7973  33.9299  75.4658