File: examples/mos2-example1/ref/raman_spectra2.dat
#Raman spectra
#Laser energy   2.33 eV
#Raman shift (cm-1), Raman Spectra (XX,YY,ZZ,s+s+,s-s-,XY,YX,s+s-,s-s+,nonpol)
   350.0000  120.236  118.573  44.7752  81.4828  81.883  34.2836  34.8937  72.2167  72.4039  84.3049
   351.2531  127.065  125.31  46.9677  85.4732  85.8928  37.0302  37.6891  77.7703  77.9577  88.5885
   352.5063  134.549  132.692  49.3252  89.764  90.2043  40.1202  40.8341  84.0193  84.2073  93.273
   353.7594  142.78  140.81  51.8647  94.3862  94.8488  43.6134  44.3895  91.0842  91.2731  98.4095
   355.0125  151.867  149.772  54.6054  99.3747  99.8612  47.583  48.4297  99.113  99.3029  104.058
   356.2657  161.944  159.709  57.5691  104.769  105.282  52.1196  53.047  108.288  108.48  110.291
   357.5188  173.169  170.779  60.7807  110.615  111.156  57.3365  58.3566  118.839  119.032  117.193
   358.7719  185.742  183.176  64.2686  116.964  117.535  63.3765  64.504  131.052  131.247  124.872
   360.0251  199.906  197.141  68.0655  123.876  124.479  70.422  71.6749  145.295  145.494  133.453
   361.2782  215.97  212.978  72.2089  131.419  132.058  78.7089  80.1092  162.043  162.246  143.099
   362.5313  234.325  231.072  76.7422  139.672  140.35  88.5462  90.1215  181.918  182.125  154.009
   363.7845  255.479  251.923  81.716  148.728  149.447  100.345  102.13  205.745  205.958  166.441
   365.0376  280.102  276.191  87.1892  158.694  159.459  114.663  116.703  234.643  234.863  180.729
   366.2907  309.092  304.76  93.2309  169.695  170.511  132.268  134.621  270.153  270.383  197.317
   367.5439  343.687  338.848  99.9226  181.882  182.752  154.246  156.991  314.448  314.69  216.808
   368.7970  385.633  380.175  107.361  195.431  196.36  182.167  185.408  370.668  370.926  240.044
   370.0501  437.473  431.243  115.661  210.552  211.546  218.372  222.257  443.485  443.763  268.239
   371.3033  503.04  495.824  124.962  227.499  228.564  266.467  271.208  540.084  540.391  303.204
   372.5564  588.355  579.843  135.43  246.58  247.72  332.241  338.153  671.974  672.318  347.768
   373.8095  703.363  693.087  147.269  268.172  269.391  425.443  433.014  858.473  858.872  406.584
   375.0627  865.487  852.699  160.73  292.738  294.037  563.475  573.502  1133.96  1134.43  487.787
   376.3158  1107.56  1090.99  176.122  320.861  322.233  779.723  793.6  1564.09  1564.69  606.743
   377.5689  1497.33  1474.6  193.834  353.285  354.704  1144.29  1164.66  2286.04  2286.84  795.326
   378.8221  2190.99  2157.23  214.356  390.992  392.385  1821.81  1854.24  3619.86  3621.04  1127.79
   380.0752  3598.8  3542.52  238.316  435.365  436.526  3251.98  3309.88  6414.68  6416.6  1801.45
   381.3283  6888.24  6779.12  266.535  488.576  488.911  6679.42  6798.34  13082  13085.7  3373.43
   382.5815  13647.9  13429.9  300.088  553.236  551.786  13239.1  13474.8  26339.4  26347.3  6352.26
   383.8346  13672.9  13454.8  340.296  625.687  625.03  11769.3  11978.7  24807.8  24817.1  5754.3
   385.0877  7078.24  6966.91  389.087  711.035  712.803  5617.59  5717.54  11975.9  11980.6  3077.53
   386.3409  3971.52  3910.81  449.201  818.836  822.062  2819.58  2869.74  5964.22  5966.54  1915.25
   387.5940  2753.36  2712.9  524.378  954.943  959.246  1626.27  1655.2  3416.11  3417.44  1491.68
   388.8471  2275.99  2243.97  620.054  1128.69  1134.06  1043.08  1061.63  2180.53  2181.39  1370.5
   390.1003  2148.22  2119.22  744.365  1354.68  1361.3  721.513  734.338  1503.36  1503.96  1407.87
   391.3534  2238.83  2209.63  909.897  1655.73  1663.94  527.256  536.621  1096.12  1096.55  1562.15
   392.6065  2518.38  2486.42  1136.93  2068.71  2079.05  401.549  408.672  833.475  833.792  1836.62
   393.8596  3017.72  2980.17  1459.76  2656.02  2669.35  315.785  321.375  654.73  654.953  2268.46
   395.1128  3832.97  3785.96  1939.99  3529.71  3547.48  254.798  259.293  527.852  527.984  2940.61
   396.3659  5173.05  5110.22  2696.67  4906.34  4931.1  209.994  213.677  434.732  434.761  4022.59
   397.6190  7494.99  7404.56  3981.95  7244.72  7281.32  176.257  179.312  364.591  364.477  5879.4
   398.8722  11894.1  11751.2  6394.65  11634.3  11693.1  150.481  153.028  310.829  310.473  9381.75
   400.1253  21334.3  21078.6  11551.3  21016.1  21122.4  130.957  133.05  269.6  268.752  16883.2
   401.3784  44122.4  43594.4  23979.5  43627.7  43848.4  117.429  119.023  239.602  237.595  34977.8
   402.6316  84371.1  83362  45921.2  83547.6  83970.3  109.481  110.48  219.595  215.553  66930.4
   403.8847  68581.6  67761.4  37323.2  67904.7  68248.3  95.9183  96.8538  193.008  189.751  54402.2
   405.1378  32416.9  32029  17620.6  32058.4  32220.6  81.308  82.3912  166.084  164.636  25700.4
   406.3910  16509.4  16311.7  8956.32  16294.9  16377.3  71.0591  72.1391  146.362  145.707  13077
   407.6441  9649.68  9534  5222.03  9500.83  9548.88  63.2827  64.3016  130.94  130.625  7634.81
   408.8972  6254.45  6179.39  3375.16  6140.69  6171.74  56.9604  57.905  118.212  118.062  4942.16
   410.1504  4363.07  4310.63  2347.36  4270.74  4292.33  51.6402  52.5114  107.419  107.359  3442.86
   411.4035  3211.07  3172.43  1722.12  3133.19  3149.03  47.0777  47.8806  98.1229  98.1172  2530.18
   412.6566  2460.44  2430.78  1315.28  2393.01  2405.1  43.117  43.8578  90.0324  90.0609  1935.87
   413.9098  1945.15  1921.67  1036.43  1885.67  1895.2  39.6483  40.3332  82.9351  82.9862  1528.18
   415.1629  1576.51  1557.45  837.279  1523.34  1531.03  36.5891  37.2236  76.6685  76.7352  1236.75
   416.4160  1303.85  1288.06  690.234  1255.81  1262.15  33.875  34.4642  71.1044  71.1821  1021.36
   417.6692  1096.55  1083.25  578.648  1052.79  1058.11  31.4547  32.0031  66.1397  66.2252  857.745
   418.9223  935.292  923.931  492.007  895.159  899.678  29.2866  29.7982  61.6899  61.7812  730.575
   420.1754  807.375  797.551  423.414  770.361  774.249  27.3363  27.8146  57.6855  57.7811  629.786
   421.4286  704.194  695.612  368.193  669.894  673.274  25.5753  26.0234  54.0685  54.1673  548.56
   422.6817  619.749  612.184  323.09  587.833  590.799  23.9797  24.4004  50.7901  50.8913  482.142
   423.9348  549.756  543.034  285.779  519.95  522.573  22.5293  22.9249  47.809  47.912  427.138
   425.1880  491.087  485.073  254.567  463.163  465.499  21.2069  21.5796  45.0902  45.1944  381.075
   426.4411  441.419  436.004  228.195  415.182  417.276  19.9978  20.3495  42.6036  42.7087  342.111
   427.6942  398.994  394.091  205.713  374.279  376.166  18.8893  19.2218  40.3233  40.4291  308.859
   428.9474  362.466  358.004  186.393  339.128  340.838  17.8707  18.1855  38.2271  38.3333  280.253
   430.2005  330.786  326.707  169.67  308.702  310.257  16.9324  17.2308  36.2955  36.4019  255.464
   431.4536  303.129  299.385  155.098  282.189  283.611  16.0661  16.3494  34.5117  34.6182  233.841
   432.7068  278.84  275.39  142.324  258.948  260.253  15.2648  15.5341  32.8608  32.9674  214.865
   433.9599  257.391  254.201  131.064  238.462  239.663  14.5219  14.7782  31.3301  31.4365  198.122
   435.2130  238.353  235.395  121.088  220.312  221.422  13.832  14.0763  29.9079  30.0141  183.273
   436.4662  221.378  218.625  112.209  204.157  205.185  13.1902  13.4232  28.5842  28.6902  170.042
   437.7193  206.176  203.608  104.271  189.715  190.67  12.5921  12.8146  27.3502  27.4558  158.203
   438.9724  192.508  190.105  97.1457  176.751  177.641  12.0337  12.2464  26.1977  26.3031  147.565
   440.2256  180.172  177.92  90.7264  165.072  165.903  11.5117  11.7152  25.1198  25.2248  137.971
   441.4787  169.001  166.885  84.9225  154.512  155.29  11.0229  11.2179  24.1101  24.2147  129.29
   442.7318  158.852  156.859  79.658  144.934  145.663  10.5647  10.7516  23.163  23.2671  121.407
   443.9850  149.603  147.723  74.8681  136.219  136.904  10.1344  10.3137  22.2732  22.3769  114.228
   445.2381  141.15  139.373  70.4973  128.267  128.912  9.7299  9.90213  21.4364  21.5396  107.672
   446.4912  133.404  131.722  66.4983  120.991  121.599  9.34914  9.51468  20.6482  20.751  101.668
   447.7444  126.288  124.693  62.83  114.317  114.892  8.99032  9.14954  19.9051  20.0073  96.1559
   448.9975  119.735  118.22  59.4569  108.18  108.724  8.65176  8.80503  19.2035  19.3053  91.083
   450.0000  114.859  113.403  56.9502  103.619  104.14  8.3945  8.54324  18.6702  18.7715  87.3101